6, channel 6 SRF extracted from AHI-8_SpectralResponsivity_Data.xlsx (release Sept 2013)
Number of data points:
276
Wavenumber (cm-1)   Filter response
     4296.000000       0.000498
     4297.000000       0.000506
     4298.000000       0.000524
     4299.000000       0.000559
     4300.000000       0.000609
     4301.000000       0.000669
     4302.000000       0.000744
     4303.000000       0.000813
     4304.000000       0.000860
     4305.000000       0.000894
     4306.000000       0.000919
     4307.000000       0.000949
     4308.000000       0.000997
     4309.000000       0.001053
     4310.000000       0.001116
     4311.000000       0.001177
     4312.000000       0.001236
     4313.000000       0.001294
     4314.000000       0.001359
     4315.000000       0.001468
     4316.000000       0.001592
     4317.000000       0.001703
     4318.000000       0.001844
     4319.000000       0.002067
     4320.000000       0.002292
     4321.000000       0.002491
     4322.000000       0.002732
     4323.000000       0.003027
     4324.000000       0.003200
     4325.000000       0.003325
     4326.000000       0.003502
     4327.000000       0.003721
     4328.000000       0.003954
     4329.000000       0.004206
     4330.000000       0.004464
     4331.000000       0.004782
     4332.000000       0.005322
     4333.000000       0.005877
     4334.000000       0.006314
     4335.000000       0.006702
     4336.000000       0.007050
     4337.000000       0.007570
     4338.000000       0.008363
     4339.000000       0.009350
     4340.000000       0.010505
     4341.000000       0.011661
     4342.000000       0.012828
     4343.000000       0.013986
     4344.000000       0.015240
     4345.000000       0.016994
     4346.000000       0.019049
     4347.000000       0.021250
     4348.000000       0.023749
     4349.000000       0.026649
     4350.000000       0.029957
     4351.000000       0.033766
     4352.000000       0.037936
     4353.000000       0.042527
     4354.000000       0.047561
     4355.000000       0.053146
     4356.000000       0.059600
     4357.000000       0.066838
     4358.000000       0.074849
     4359.000000       0.083399
     4360.000000       0.092448
     4361.000000       0.102200
     4362.000000       0.112899
     4363.000000       0.124383
     4364.000000       0.136945
     4365.000000       0.150132
     4366.000000       0.164029
     4367.000000       0.178177
     4368.000000       0.192639
     4369.000000       0.207333
     4370.000000       0.222217
     4371.000000       0.237384
     4372.000000       0.252949
     4373.000000       0.268550
     4374.000000       0.284080
     4375.000000       0.299653
     4376.000000       0.315283
     4377.000000       0.330935
     4378.000000       0.346717
     4379.000000       0.362523
     4380.000000       0.378094
     4381.000000       0.393541
     4382.000000       0.408978
     4383.000000       0.424884
     4384.000000       0.440984
     4385.000000       0.456992
     4386.000000       0.472841
     4387.000000       0.488462
     4388.000000       0.503747
     4389.000000       0.518334
     4390.000000       0.533139
     4391.000000       0.548068
     4392.000000       0.562728
     4393.000000       0.577098
     4394.000000       0.590825
     4395.000000       0.603825
     4396.000000       0.617030
     4397.000000       0.630278
     4398.000000       0.643128
     4399.000000       0.656117
     4400.000000       0.669249
     4401.000000       0.682177
     4402.000000       0.695264
     4403.000000       0.708636
     4404.000000       0.721472
     4405.000000       0.734306
     4406.000000       0.747497
     4407.000000       0.760284
     4408.000000       0.772843
     4409.000000       0.784367
     4410.000000       0.795469
     4411.000000       0.806363
     4412.000000       0.817274
     4413.000000       0.827999
     4414.000000       0.838385
     4415.000000       0.848876
     4416.000000       0.858915
     4417.000000       0.868244
     4418.000000       0.877461
     4419.000000       0.886072
     4420.000000       0.893890
     4421.000000       0.901641
     4422.000000       0.909652
     4423.000000       0.918227
     4424.000000       0.927644
     4425.000000       0.937205
     4426.000000       0.947352
     4427.000000       0.957275
     4428.000000       0.967537
     4429.000000       0.977774
     4430.000000       0.988032
     4431.000000       0.994819
     4432.000000       0.998840
     4433.000000       0.999908
     4434.000000       0.998987
     4435.000000       0.996791
     4436.000000       0.993031
     4437.000000       0.988550
     4438.000000       0.984295
     4439.000000       0.979351
     4440.000000       0.974575
     4441.000000       0.971618
     4442.000000       0.969459
     4443.000000       0.966205
     4444.000000       0.960204
     4445.000000       0.953002
     4446.000000       0.945352
     4447.000000       0.935407
     4448.000000       0.923070
     4449.000000       0.910560
     4450.000000       0.896572
     4451.000000       0.881253
     4452.000000       0.866877
     4453.000000       0.852533
     4454.000000       0.837691
     4455.000000       0.822777
     4456.000000       0.807636
     4457.000000       0.791682
     4458.000000       0.775675
     4459.000000       0.759529
     4460.000000       0.742520
     4461.000000       0.725046
     4462.000000       0.707309
     4463.000000       0.689748
     4464.000000       0.672360
     4465.000000       0.655564
     4466.000000       0.638864
     4467.000000       0.621806
     4468.000000       0.604637
     4469.000000       0.587202
     4470.000000       0.569615
     4471.000000       0.552659
     4472.000000       0.536229
     4473.000000       0.520835
     4474.000000       0.505903
     4475.000000       0.490935
     4476.000000       0.475575
     4477.000000       0.460111
     4478.000000       0.444771
     4479.000000       0.429358
     4480.000000       0.413897
     4481.000000       0.397987
     4482.000000       0.382013
     4483.000000       0.366008
     4484.000000       0.350530
     4485.000000       0.335229
     4486.000000       0.319740
     4487.000000       0.304492
     4488.000000       0.289440
     4489.000000       0.274533
     4490.000000       0.260063
     4491.000000       0.246559
     4492.000000       0.233676
     4493.000000       0.220889
     4494.000000       0.208222
     4495.000000       0.195605
     4496.000000       0.183162
     4497.000000       0.171243
     4498.000000       0.159579
     4499.000000       0.148082
     4500.000000       0.136905
     4501.000000       0.126151
     4502.000000       0.115840
     4503.000000       0.105843
     4504.000000       0.096227
     4505.000000       0.087217
     4506.000000       0.078760
     4507.000000       0.071070
     4508.000000       0.064243
     4509.000000       0.057510
     4510.000000       0.050771
     4511.000000       0.044692
     4512.000000       0.039234
     4513.000000       0.034455
     4514.000000       0.030252
     4515.000000       0.026479
     4516.000000       0.023094
     4517.000000       0.020094
     4518.000000       0.017462
     4519.000000       0.015154
     4520.000000       0.013109
     4521.000000       0.011483
     4522.000000       0.010243
     4523.000000       0.009206
     4524.000000       0.008339
     4525.000000       0.007508
     4526.000000       0.006624
     4527.000000       0.005849
     4528.000000       0.005231
     4529.000000       0.004720
     4530.000000       0.004315
     4531.000000       0.003969
     4532.000000       0.003668
     4533.000000       0.003370
     4534.000000       0.002901
     4535.000000       0.002485
     4536.000000       0.002321
     4537.000000       0.002203
     4538.000000       0.001984
     4539.000000       0.001689
     4540.000000       0.001375
     4541.000000       0.001141
     4542.000000       0.001158
     4543.000000       0.001254
     4544.000000       0.001225
     4545.000000       0.001086
     4546.000000       0.001067
     4547.000000       0.001114
     4548.000000       0.001094
     4549.000000       0.000967
     4550.000000       0.000931
     4551.000000       0.000962
     4552.000000       0.000949
     4553.000000       0.000726
     4554.000000       0.000631
     4555.000000       0.000641
     4556.000000       0.000661
     4557.000000       0.000721
     4558.000000       0.000761
     4559.000000       0.000753
     4560.000000       0.000731
     4561.000000       0.000652
     4562.000000       0.000543
     4563.000000       0.000427
     4564.000000       0.000344
     4565.000000       0.000321
     4566.000000       0.000310
     4567.000000       0.000343
     4568.000000       0.000438
     4569.000000       0.000535
     4570.000000       0.000617
     4571.000000       0.000617
